File: data-hydroxyapatite.txt
MATERIAL INFORMATION
	Material = Hydroxyapatite (powder)
SAXS INSTRUMENT
	Source = Cu K-alpha
	Wavelength = 1.5418 A
	Sample-to-detector distance = 106 mm
	Exposure time = 500 s

===============================================================
q (A^-1)	I(q)
===============================================================
0.00178309	-0.0796673
0.00914837	-0.151686
0.0165136	-0.0127732
0.0238789	0.0793282
0.0312441	-6.13037
0.0386094	0.353709
0.0459745	0.157036
0.0533397	0.207342
0.0607048	0.188736
0.0680698	0.131572
0.0754348	0.102153
0.0827998	0.078219
0.0901646	0.0764845
0.0975294	0.0592855
0.104894	0.0419386
0.112259	0.0423436
0.119623	0.039703
0.126988	0.0282474
0.134352	0.031226
0.141716	0.0202489
0.14908		0.0251014
0.156444	0.0185803
0.163808	0.0175165
0.171172	0.0116964
0.178536	0.0160974
0.185899	0.00979128
0.193262	0.0124362
0.200625	0.0111856
0.207988	0.0133412
0.215351	0.010813
0.222714	0.0090342
0.230076	0.00837432
0.237439	0.008316
0.244801	0.00703944
0.252162	0.00721224
0.259524	0.00677268
0.266886	0.00612576
0.274247	0.00761076
0.281608	0.00564084
0.288969	0.0043362
0.296329	0.00763236
0.303689	0.00553716
0.311049	0.00367956
0.318409	0.00451764
0.325769	0.0034452
0.333128	0.00216756
0.340487	0.0033318
0.347846	0.00440424
0.355204	0.0053946
0.362562	0.0032508
0.36992		0.00160704
0.377278	0.0036936
0.384635	0.00271512
0.391992	-0.0018684
0.399348	0.006723
0.406705	0.00472392
0.414061	0.003591
0.421416	0.00472068
0.428771	0.00186732
0.436126	0.00411048
0.443481	0.00273564
0.450835	0.00236088
0.458189	0.00335448
0.465542	0.00265032
0.472895	0.00327888
0.480248	0.00209952
0.4876		0.00427896
0.494952	0.0007776
0.502304	0.00216108
0.509655	0.0050328
0.517006	0.00368496
0.524356	0.00233388
0.531705	0.00357264
0.539055	0.00310824
0.546404	0.0019656
0.553752	0.00301644
0.5611		0.00224748
0.568448	0.00281664
0.575795	-0.003672
0.583142	0.00333504
0.590488	0.00096228
0.597834	0.0004752
0.605179	0.00310284
0.612524	0.00105732
0.619868	0.0009342
0.627211	0.00301104
0.634555	0.00251316
0.641897	0.00226908
0.649239	0.00312984
0.656581	0.0006912
0.663922	0.00034452
0.671263	0.00218268
0.678603	0.00111132
0.685942	0.00277992
0.693281	0.00237384
0.700619	0.0016632
0.707957	0.0023328
0.715294	0.0031968
0.722631	0.00158976
0.729967	0.00312228
0.737302	0.00194616
0.744637	0.00375084
0.751971	0.00422928
0.759305	0.0126058
0.766637	0.0160142
0.77397		0.0137657
0.781301	0.0070038
0.788633	0.00380592
0.795963	0.00391932
0.803293	0.00296892
0.810622	0.0022788
0.81795		0.00301752
0.825278	0.00200016
0.832605	0.00351648
0.839931	0.00185112
0.847257	0.00243756
0.854582	0.00368388
0.861907	0.00219888
0.86923		0.00246672
0.876553	0.00227556
0.883875	0.00348084
0.891197	0.00216756
0.898517	0.00121716
0.905837	0.00104112
0.913157	0.00153576
0.920475	0.00148176
0.927793	0.00134784
0.93511		0.00242892
0.942426	0.00259524
0.949742	0.0006102
0.957057	0.00130464
0.964371	0.00177984
0.971684	0.00182196
0.978996	0.00102708
0.986308	0.0025866
0.993618	0.002538
1.00093		0.00263952
1.00824		0.00168696
1.01555		0.00305208
1.02285		0.00128088
1.03016		0.00085212
1.03747		0.00202824
1.04477		0.00084456
1.05207		0.00105084
1.05938		0.00117396
1.06668		0.00125928
1.07398		0.00113076
1.08128		0.00032508
1.08858		0.00106812
1.09588		0.00157464
1.10318		0.0016848
1.11048		0.00265356
1.11777		0.0019008
1.12507		0.00102276
1.13236		5.616e-05
1.13965		0.00104328
1.14695		4.644e-05
1.15424		0.000243
1.16153		0.0022194
1.16882		0.00108216
1.17611		0.00149472
1.1834		0.00262656
1.19068		0.00274968
1.19797		0.00379296
1.20525		0.00276912
1.21254		-0.00046332
1.21982		0.00035424
1.2271		0.00143424
1.23438		0.00132408
1.24166		-0.0002214
1.24894	-0.00054432
1.25622	0.00047412
1.2635	0.0014634
1.27077	-0.00047412
1.27805	-0.00675108
1.28532	0.00132732
1.29259	0.00085212
1.29986	0.00059292
1.30713	0.00020088
1.3144	0.00203256
1.32167	0.00037152
1.32894	0.00148608
1.33621	0.00159084
1.34347	0.00243216
1.35073	0.00058212
1.358	0.00110592
1.36526	8.64e-06
1.37252	-0.0006696
1.37978	0.0085212
1.38704	0.00069336
1.3943	0.0004806
1.40155	0.00118368
1.40881	0.0005076
1.41606	0.00122364
1.42331	4.104e-05
1.43056	0.0016902
1.43781	-0.00083052
1.44506	0.0020088
1.45231	0.00046008
1.45956	0.0016038
1.4668	0.0011286
1.47405	-0.00565812
1.48129	0.0005724
1.48853	0.00048276
1.49578	0.00021276
1.50301	5.724e-05
1.51025	0.00095364
1.51749	0.00159192
1.52472	0.00301644
1.53196	0.00505764
1.53919	0.00443556
1.54643	0.00205632
1.55366	0.00074088
1.56089	0.00041688
1.56811	0.0023112
1.57534	0.0020412
1.58257	0.00070956
1.58979	0.001836
1.59702	0.00114696
1.60424	0.00518724
1.61146	0.00674784
1.61868	0.00617004
1.62589	0.0030672
1.63311	0.00215028
1.64033	0.00205416
1.64754	0.00197748
1.65475	0.00241164
1.66196	0.0018252
1.66917	0.00111672
1.67638	0.00179496
1.68359	0.00056052
1.6908	0.0005184
1.698	0.0008208
1.7052	0.001107
1.7124	0.00142776
1.7196	0.00167616
1.7268	0.00153036
1.734	0.00131976
1.7412	0.00177444
1.74839	0.00089316
1.75558	0.00986148
1.76278	0.00234036
1.76997	0.0025974
1.77716	0.00236952
1.78434	0.00549504
1.79153	0.00500688
1.79871	0.00349272
1.8059	0.00543888
1.81308	0.00927072
1.82026	0.0289861
1.82743	0.0323438
1.83461	0.0169711
1.84179	0.00531576
1.84896	0.00797148
1.85613	0.0016362
1.86331	-0.00964548
1.8645	-0.005589