File: data-PMMA.txt
MATERIAL INFORMATION
	Material = PMMA
	Thickness = 1 mm
SAXS INSTRUMENT
	Source = Cu K-alpha
	Wavelength = 1.5418 A
	Sample-to-detector distance = 106 mm
	Exposure time = 60 s

===============================================================
q (A^-1)	I(q)
===============================================================
-0.015857	0.092694
-0.0058281	0.071435
0.00420075	-0.026706
0.0142296	0.252017
0.0242583	-0.417019
0.034287	-0.442221
0.0443156	0.0286272
0.0543441	-0.0495508
0.0643725	0.00447242
0.0744007	-0.00383233
0.0844288	0.0120199
0.0944567	0.0149435
0.104485	0.0188204
0.114512	0.0207098
0.124539	0.0236099
0.134566	0.0150987
0.144593	0.0174516
0.15462	0.0132646
0.164647	0.0174115
0.174673	0.0151491
0.184698	0.0131947
0.194724	0.0158287
0.204749	0.0178971
0.214774	0.0173554
0.224798	0.0206177
0.234822	0.0202597
0.244846	0.030112
0.254869	0.0216569
0.264892	0.0217731
0.274914	0.0329555
0.284936	0.0304177
0.294958	0.0353487
0.304979	0.028291
0.314999	0.0228083
0.325019	0.0330386
0.335039	0.0339506
0.345058	0.0287258
0.355076	0.0416045
0.365094	0.040579
0.375111	0.0459655
0.385128	0.0445
0.395144	0.0348805
0.405159	0.038086
0.415174	0.048993
0.425188	0.0452858
0.435201	0.0461439
0.445214	0.0498431
0.455226	0.0568979
0.465237	0.0544973
0.475248	0.0648654
0.485258	0.0655332
0.495266	0.066746
0.505275	0.0683547
0.515282	0.0692536
0.525289	0.0741341
0.535294	0.079328
0.545299	0.0887374
0.555303	0.0880042
0.565307	0.0938823
0.575309	0.090573
0.58531	0.0944376
0.595311	0.10281
0.60531	0.10417
0.615309	0.114515
0.625306	0.108456
0.635303	0.122739
0.645299	0.124286
0.655293	0.11857
0.665287	0.126176
0.675279	0.134182
0.685271	0.148951
0.695261	0.146522
0.705251	0.153723
0.715239	0.161679
0.725226	0.164605
0.735212	0.172935
0.745197	0.180522
0.75518	0.185482
0.765163	0.197913
0.775144	0.201277
0.785124	0.208337
0.795103	0.218226
0.805081	0.23715
0.815057	0.246979
0.825032	0.256176
0.835006	0.268443
0.844979	0.275505
0.85495	0.295916
0.86492	0.286538
0.874888	0.303095
0.884855	0.316577
0.894821	0.342522
0.904785	0.347273
0.914748	0.338995
0.92471	0.346733
0.93467	0.349837
0.944629	0.351847
0.954586	0.350625
0.964542	0.351002
0.974496	0.352557
0.984449	0.356072
0.9944	0.356031
1.00435	0.358304
1.0143	0.34315
1.02424	0.343896
1.03419	0.339901
1.04413	0.335082
1.05407	0.325254
1.06401	0.312249
1.07395	0.312323
1.08389	0.313114
1.09383	0.307492
1.10376	0.30053
1.11369	0.298113
1.12362	0.290643
1.13355	0.287325
1.14348	0.284323
1.1534	0.266638
1.16332	0.267974
1.17324	0.258977
1.18316	0.247316
1.19308	0.249889
1.203	0.243737
1.21291	0.240043
1.22282	0.226329
1.23273	0.217681
1.24264	0.203319
1.25255	0.205549
1.26245	0.211794
1.27235	0.207831
1.28225	0.206733
1.29215	0.200635
1.30205	0.184607
1.31194	0.182879
1.32184	0.177119
1.33173	0.17651
1.34162	0.169772
1.3515	0.163691
1.36138	0.155011
1.37127	0.152453
1.38115	0.145967
1.39103	0.146156
1.4009	0.146858
1.41077	0.14048
1.42065	0.129739
1.43052	0.131224
1.44038	0.116034
1.45025	0.117499
1.46011	0.11715
1.46997	0.103174
1.47983	0.101028
1.48968	0.10136
1.49954	0.101193
1.50939	0.0985085
1.51924	0.0920728
1.52908	0.0921794
1.53893	0.0878742
1.54877	0.0841795
1.55861	0.0799987
1.56845	0.0771716
1.57828	0.0755989
1.58811	0.0729957
1.59794	0.0702653
1.60777	0.0680707
1.6176	0.0675655
1.62742	0.0651488
1.63724	0.0614306
1.64705	0.0617339
1.65687	0.058519
1.66668	0.0577398
1.67649	0.0605656
1.6863	0.0585208
1.6961	0.055152
1.70591	0.0502082
1.71571	0.0460672
1.7255	0.0458424
1.7353	0.0458675
1.74509	0.0478848
1.75488	0.0467023
1.76466	0.0490047
1.77445	0.0503776
1.78423	0.0527122
1.794	0.0483083
1.80378	0.0447995
1.81355	0.0382966
1.82332	0.0308941
1.83309	0.0300665