File: data-parchment-33iod.txt
MATERIAL INFORMATION
	Material = 33% iodine on King Arthur parchment
	Thickness = 0.006 mm
SAXS INSTRUMENT
	Source = Cu K-alpha
	Wavelength = 1.5418 A
	Sample-to-detector distance = 106 mm
	Exposure time = 500 s

===============================================================
q (A^-1)	I(q)
===============================================================
0.00203935	3.84759
0.00947059	-3.24016
0.0169018	0.487279
0.0243331	-1.34258
0.0317643	-9.72225
0.0391954	-0.419428
0.0466266	0.59146
0.0540577	0.303931
0.0614887	2.15174
0.0689197	1.82497
0.0763507	1.90271
0.0837816	1.29824
0.0912124	1.55838
0.0986431	0.682987
0.106074	0.748203
0.113504	0.403011
0.120935	0.627613
0.128365	0.831344
0.135796	0.588575
0.143226	0.542906
0.150656	0.713299
0.158086	0.68992
0.165515	0.600442
0.172945	0.656854
0.180374	0.281173
0.187804	0.335509
0.195233	0.124572
0.202662	0.219233
0.210091	0.0417307
0.21752	0.156684
0.224948	0.353545
0.232376	0.558133
0.239805	0.151446
0.247233	0.102277
0.25466	0.0776101
0.262088	-0.143193
0.269515	0.409457
0.276942	0.155548
0.284369	0.0960996
0.291796	0.136023
0.299222	-0.0167267
0.306648	0.267827
0.314074	-0.0782856
0.321499	0.198154
0.328925	0.430058
0.33635	0.138255
0.343775	-0.00535485
0.351199	0.223829
0.358623	0.306085
0.366047	-0.554209
0.373471	0.106152
0.380894	0.0397756
0.388317	0.155248
0.39574	0.11449
0.403162	-0.172215
0.410584	0.120208
0.418006	-0.025725
0.425427	-0.00641438
0.432848	0.0210388
0.440269	-0.141496
0.447689	-0.000126169
0.455108	-0.286565
0.462528	0.044756
0.469947	-0.0974204
0.477366	-0.0372591
0.484784	0.04134
0.492202	0.0119962
0.499619	-0.154887
0.507037	-0.0349905
0.514453	0.375974
0.521869	-0.0222582
0.529285	0.0161463
0.5367	-0.107994
0.544115	-0.0684781
0.55153	0.0911572
0.558944	-0.0957383
0.566357	-0.193745
0.57377	0.0167019
0.581183	-0.19141
0.588595	-0.0864482
0.596007	-0.058986
0.603418	0.0437382
0.610828	-0.00883975
0.618238	-0.0889062
0.625648	-0.0278213
0.633057	-0.472362
0.640466	-0.132366
0.647873	-0.0670406
0.655281	-0.0298751
0.662688	0.0303315
0.670094	-0.043686
0.6775	-0.0784841
0.684905	-0.158539
0.69231	0.145997
0.699714	0.212597
0.707118	0.0556548
0.714521	-0.463688
0.721923	-0.0514842
0.729325	0.0628304
0.736726	-0.0103986
0.744126	0.165114
0.751526	0.130059
0.758925	0.0867334
0.766324	0.0715077
0.773722	0.228361
0.781119	0.0122763
0.788516	-0.016173
0.795912	0.00995421
0.803308	0.0428527
0.810702	0.20446
0.818096	0.156808
0.82549	0.0207089
0.832882	0.0937811
0.840274	0.0378152
0.847666	0.133263
0.855056	0.130373
0.862446	0.177261
0.869835	0.076237
0.877224	-0.0476458
0.884612	0.222023
0.891999	0.333365
0.899385	0.170583
0.90677	0.0607258
0.914155	0.0741261
0.921539	0.120534
0.928922	0.262393
0.936305	0.168587
0.943686	0.161031
0.951067	0.183477
0.958447	0.203147
0.965827	-0.0423446
0.973205	0.169285
0.980583	0.342406
0.98796	0.401341
0.995336	0.366703
1.00271	0.521111
1.01008	0.398336
1.01746	0.340168
1.02483	0.434651
1.0322	0.459681
1.03957	0.397464
1.04694	0.443886
1.05431	0.415298
1.06168	0.612612
1.06905	0.455493
1.07642	0.298494
1.08378	0.557027
1.09115	0.433081
1.09851	0.446729
1.10587	0.877053
1.11324	0.450136
1.1206	0.523616
1.12796	0.453495
1.13532	0.515951
1.14267	0.528095
1.15003	0.314664
1.15739	0.227344
1.16474	0.282941
1.1721	0.367176
1.17945	0.421357
1.1868	0.440315
1.19416	0.349047
1.20151	0.271221
1.20886	0.321086
1.2162	0.304267
1.22355	0.346027
1.2309	0.16583
1.23824	0.221479
1.24559	0.226903
1.25293	0.163894
1.26027	0.101314
1.26762	0.158923
1.27496	0.177031
1.2823	0.148769
1.28963	0.149379
1.29697	0.186457
1.30431	0.139019
1.31164	0.0957623
1.31898	0.0147623
1.32631	0.090423
1.33364	0.139479
1.34097	0.20176
1.3483	0.175875
1.35563	0.174413
1.36295	0.290365
1.37028	0.212056
1.37761	0.320292
1.38493	0.345755
1.39225	0.336718
1.39957	0.343184
1.40689	0.250149
1.41421	0.265585
1.42153	0.487771
1.42885	0.451517
1.43616	0.368261
1.44348	0.362018
1.45079	0.544815
1.4581	0.385751
1.46541	0.503363
1.47272	0.493225
1.48003	0.490151
1.48734	0.637069
1.49464	0.485334
1.50195	0.619597
1.50925	0.61484
1.51655	0.565307
1.52386	0.66714
1.53116	0.758904
1.53845	0.806263
1.54575	0.890156
1.55305	0.907489
1.56034	0.986411
1.56763	1.14092
1.57492	1.13832
1.58222	1.14255
1.5895	1.1538
1.59679	1.01877
1.60408	1.09624
1.61136	0.953904
1.61865	0.968069
1.62593	0.45878
1.63321	0.685169
1.64049	0.733243
1.64777	0.537556
1.65505	0.693277
1.66232	0.416935
1.6696	0.381593
1.67687	0.320701
1.68414	0.297605
1.69141	0.281022
1.69868	0.406863
1.70595	0.287352
1.71321	0.271746
1.72048	0.237093
1.72774	0.138425
1.735	0.16056
1.74226	0.128561
1.74952	0.109716
1.75678	0.0534171
1.76404	0.0664276
1.77129	0.11855
1.77854	0.131286
1.78579	0.14764
1.79305	0.0498171
1.80029	0.210685
1.80754	-0.0455014
1.81479	-0.0485548
1.82203	0.204313
1.82927	0.091749
1.83651	0.153671
1.84375	-0.0411944
1.85099	0.092573
1.85823	0.160697
1.86546	0.187266
1.87269	0.147005
1.87752	-0.161104