File: data-parchment.txt
MATERIAL INFORMATION
	Material = King Arthur parchment
	Thickness = 0.006 mm
SAXS INSTRUMENT
	Source = Cu K-alpha
	Wavelength = 1.5418 A
	Sample-to-detector distance = 106 mm
	Exposure time = 500 s

===============================================================
q (A^-1)	I(q)
===============================================================
0.00203935	2.78927
0.00947059	1.09954
0.0169018	1.7398
0.0243331	-1.03549
0.0317643	-4.49621
0.0391954	-0.0814218
0.0466266	0.0822195
0.0540577	0.639211
0.0614887	1.20615
0.0689197	1.17209
0.0763507	0.734403
0.0837816	0.619006
0.0912124	1.04823
0.0986431	0.80191
0.106074	0.654405
0.113504	0.395574
0.120935	0.0701925
0.128365	0.341194
0.135796	0.653863
0.143226	0.132753
0.150656	0.649499
0.158086	0.188861
0.165515	0.4521
0.172945	0.347607
0.180374	0.359188
0.187804	-0.00646418
0.195233	0.226222
0.202662	0.365427
0.210091	-0.222972
0.21752	-0.0452929
0.224948	0.0952059
0.232376	0.19707
0.239805	-0.127801
0.247233	0.323924
0.25466	-0.133458
0.262088	-0.386077
0.269515	0.109301
0.276942	0.0662944
0.284369	-0.174966
0.291796	0.0104074
0.299222	0.065833
0.306648	0.2313
0.314074	0.0533636
0.321499	-0.0247316
0.328925	-0.186452
0.33635	-0.040086
0.343775	0.119022
0.351199	-0.0517824
0.358623	0.0377463
0.366047	0.0210632
0.373471	0.0768968
0.380894	-0.0803857
0.388317	0.032359
0.39574	-0.00203493
0.403162	-0.122381
0.410584	-0.14813
0.418006	-0.0867972
0.425427	-0.170211
0.432848	-0.176393
0.440269	-0.259839
0.447689	-0.165741
0.455108	-0.152189
0.462528	0.0782263
0.469947	-0.0857676
0.477366	-0.161966
0.484784	-0.0442769
0.492202	-0.156346
0.499619	-0.0741455
0.507037	-0.0497005
0.514453	0.369446
0.521869	-0.116966
0.529285	-0.0694706
0.5367	-0.123613
0.544115	-0.0759156
0.55153	-0.0671848
0.558944	0.0850004
0.566357	-0.0966401
0.57377	0.0419907
0.581183	-0.160667
0.588595	-0.211155
0.596007	-0.0718778
0.603418	-0.00915248
0.610828	-0.0117319
0.618238	-0.151797
0.625648	0.100192
0.633057	-0.0570854
0.640466	-0.226165
0.647873	-0.100841
0.655281	0.0254128
0.662688	-0.0589217
0.670094	-0.177483
0.6775	-0.0731948
0.684905	-0.238701
0.69231	-0.121433
0.699714	0.168796
0.707118	-0.105414
0.714521	0.00795113
0.721923	-0.0380132
0.729325	-0.0218775
0.736726	0.0694339
0.744126	-0.0105002
0.751526	-0.10828
0.758925	0.0356608
0.766324	-0.0850162
0.773722	0.0836554
0.781119	0.0666551
0.788516	-0.0690636
0.795912	0.0216071
0.803308	0.032688
0.810702	0.166115
0.818096	0.00664785
0.82549	-0.0467268
0.832882	0.062708
0.840274	-0.0759827
0.847666	0.120371
0.855056	0.00293909
0.862446	0.0298276
0.869835	-0.00574369
0.877224	-0.119627
0.884612	0.156406
0.891999	0.132297
0.899385	0.0886023
0.90677	-0.0421633
0.914155	0.085779
0.921539	0.0776427
0.928922	0.0840514
0.936305	0.133878
0.943686	0.177229
0.951067	0.107859
0.958447	0.126621
0.965827	0.128394
0.973205	0.131848
0.980583	0.234971
0.98796	0.352086
0.995336	0.27745
1.00271	0.358223
1.01008	0.264539
1.01746	0.364548
1.02483	0.356306
1.0322	0.370428
1.03957	0.433661
1.04694	0.356451
1.05431	0.358771
1.06168	0.463361
1.06905	0.319878
1.07642	0.242876
1.08378	0.405049
1.09115	0.325647
1.09851	0.426564
1.10587	0.356904
1.11324	0.40179
1.1206	0.536178
1.12796	0.357878
1.13532	0.471242
1.14267	0.412479
1.15003	0.349953
1.15739	0.358084
1.16474	0.343684
1.1721	0.246106
1.17945	0.333922
1.1868	0.354698
1.19416	0.231612
1.20151	0.321963
1.20886	0.189107
1.2162	0.386827
1.22355	0.160413
1.2309	0.177483
1.23824	0.216768
1.24559	0.223102
1.25293	0.13373
1.26027	0.159329
1.26762	0.146031
1.27496	0.179594
1.2823	0.153149
1.28963	0.0473988
1.29697	0.00175259
1.30431	0.250669
1.31164	0.242866
1.31898	0.0727773
1.32631	0.10753
1.33364	0.105679
1.34097	0.136143
1.3483	0.167528
1.35563	0.137886
1.36295	0.211112
1.37028	0.109167
1.37761	0.128314
1.38493	0.192867
1.39225	0.266556
1.39957	0.273021
1.40689	0.281801
1.41421	0.341781
1.42153	0.393063
1.42885	0.409535
1.43616	0.317188
1.44348	0.315491
1.45079	0.450108
1.4581	0.355587
1.46541	0.515016
1.47272	0.470334
1.48003	0.441805
1.48734	0.519634
1.49464	0.390626
1.50195	0.518526
1.50925	0.564677
1.51655	0.577869
1.52386	0.498798
1.53116	0.623288
1.53845	0.64883
1.54575	0.817266
1.55305	0.770964
1.56034	0.862613
1.56763	1.01349
1.57492	0.968161
1.58222	0.882392
1.5895	0.963637
1.59679	0.98861
1.60408	0.928803
1.61136	0.813744
1.61865	0.755183
1.62593	0.749515
1.63321	0.564099
1.64049	0.478541
1.64777	0.419213
1.65505	0.330396
1.66232	0.274956
1.6696	0.250522
1.67687	0.15145
1.68414	0.137445
1.69141	0.10359
1.69868	0.183069
1.70595	0.0971926
1.71321	0.187948
1.72048	0.102387
1.72774	0.0746255
1.735	0.0158536
1.74226	0.0483986
1.74952	-0.0031733
1.75678	0.00325358
1.76404	0.0453542
1.77129	-0.00797512
1.77854	-0.0897817
1.78579	-0.0525192
1.79305	-0.0967071
1.80029	-0.0721987
1.80754	-0.141118
1.81479	-0.181443
1.82203	-0.104934
1.82927	-0.0693202
1.83651	0.059872
1.84375	-0.223172
1.85099	0.395126
1.85823	0.145078
1.86546	-0.146525
1.87269	-0.127697
1.87752	-0.523985