File: data-tangoblack.txt
MATERIAL INFORMATION
	Material = TangoBlack
	Thickness = 1 mm
SAXS INSTRUMENT
	Source = Cu K-alpha
	Wavelength = 1.5418 A
	Sample-to-detector distance = 106 mm
	Exposure time = 60 s

===============================================================
q (A^-1)	I(q)
===============================================================
-0.015857	0.121051
-0.0058281	0.0544706
0.00420075	-0.0227411
0.0142296	0.272107
0.0242583	-0.665197
0.034287	-0.696289
0.0443156	0.0703038
0.0543441	-0.0618389
0.0643725	0.0720718
0.0744007	0.0648215
0.0844288	0.0854928
0.0944567	0.0836273
0.104485	0.0851061
0.114512	0.075369
0.124539	0.0779403
0.134566	0.0646515
0.144593	0.0742654
0.15462	0.071008
0.164647	0.0769647
0.174673	0.0739628
0.184698	0.0817594
0.194724	0.0824909
0.204749	0.0818133
0.214774	0.0858223
0.224798	0.0988095
0.234822	0.0970652
0.244846	0.112796
0.254869	0.117536
0.264892	0.118955
0.274914	0.129519
0.284936	0.132274
0.294958	0.138341
0.304979	0.147029
0.314999	0.142856
0.325019	0.151457
0.335039	0.155772
0.345058	0.152491
0.355076	0.162866
0.365094	0.159147
0.375111	0.160789
0.385128	0.15459
0.395144	0.148518
0.405159	0.144126
0.415174	0.152036
0.425188	0.144082
0.435201	0.133004
0.445214	0.134753
0.455226	0.131862
0.465237	0.124408
0.475248	0.126008
0.485258	0.123938
0.495266	0.12176
0.505275	0.119638
0.515282	0.10694
0.525289	0.104586
0.535294	0.107702
0.545299	0.111339
0.555303	0.100627
0.565307	0.102033
0.575309	0.088349
0.58531	0.0934397
0.595311	0.0945638
0.60531	0.0910903
0.615309	0.088532
0.625306	0.0883007
0.635303	0.093
0.645299	0.0895818
0.655293	0.0813771
0.665287	0.0837213
0.675279	0.0854573
0.685271	0.0908522
0.695261	0.085317
0.705251	0.0885199
0.715239	0.0882093
0.725226	0.0848526
0.735212	0.0872952
0.745197	0.0886615
0.75518	0.0885629
0.765163	0.0918475
0.775144	0.0875585
0.785124	0.091657
0.795103	0.0892921
0.805081	0.0977303
0.815057	0.0968357
0.825032	0.0967824
0.835006	0.0986413
0.844979	0.104867
0.85495	0.101219
0.86492	0.0891961
0.874888	0.0997638
0.884855	0.107209
0.894821	0.117647
0.904785	0.120151
0.914748	0.112595
0.92471	0.116582
0.93467	0.117188
0.944629	0.122591
0.954586	0.122811
0.964542	0.124799
0.974496	0.130724
0.984449	0.138516
0.9944	0.141081
1.00435	0.152342
1.0143	0.144506
1.02424	0.149785
1.03419	0.154211
1.04413	0.160049
1.05407	0.158823
1.06401	0.15992
1.07395	0.164411
1.08389	0.175735
1.09383	0.180752
1.10376	0.187897
1.11369	0.191575
1.12362	0.196616
1.13355	0.200722
1.14348	0.209054
1.1534	0.206666
1.16332	0.212758
1.17324	0.2149
1.18316	0.21669
1.19308	0.228432
1.203	0.230576
1.21291	0.237773
1.22282	0.235804
1.23273	0.241349
1.24264	0.226999
1.25255	0.246207
1.26245	0.256778
1.27235	0.261877
1.28225	0.280434
1.29215	0.267929
1.30205	0.2628
1.31194	0.265044
1.32184	0.265854
1.33173	0.26946
1.34162	0.271854
1.3515	0.271553
1.36138	0.266745
1.37127	0.266193
1.38115	0.268957
1.39103	0.268141
1.4009	0.271296
1.41077	0.264289
1.42065	0.256851
1.43052	0.258849
1.44038	0.246758
1.45025	0.250166
1.46011	0.248837
1.46997	0.234355
1.47983	0.233875
1.48968	0.233159
1.49954	0.231617
1.50939	0.2255
1.51924	0.215881
1.52908	0.210154
1.53893	0.207803
1.54877	0.20158
1.55861	0.196771
1.56845	0.187908
1.57828	0.187703
1.58811	0.178713
1.59794	0.172866
1.60777	0.165342
1.6176	0.160822
1.62742	0.157357
1.63724	0.150733
1.64705	0.147587
1.65687	0.139134
1.66668	0.135853
1.67649	0.133553
1.6863	0.123969
1.6961	0.118853
1.70591	0.111789
1.71571	0.105764
1.7255	0.102687
1.7353	0.0982999
1.74509	0.0941714
1.75488	0.0920973
1.76466	0.0906185
1.77445	0.086559
1.78423	0.0879142
1.794	0.0779427
1.80378	0.0737256
1.81355	0.0639181
1.82332	0.0574768
1.83309	0.0481333