File: data-flx9095.txt
MATERIAL INFORMATION
	Material = Flx9095
	Thickness = 1 mm
SAXS INSTRUMENT
	Source = Cu K-alpha
	Wavelength = 1.5418 A
	Sample-to-detector distance = 106 mm
	Exposure time = 60 s

===============================================================
q (A^-1)	I(q)
===============================================================
0.00171434	-0.00192394
0.00908246	0.0541349
0.0164506	0.0446539
0.0238187	0.0033327
0.0311868	0.0285171
0.0385548	-0.0106904
0.0459228	-0.0077703
0.0532908	0.00235437
0.0606587	0.00684118
0.0680266	0.0443358
0.0753945	0.0852369
0.0827623	0.108211
0.09013	0.106652
0.0974976	0.109269
0.104865	0.0937651
0.112233	0.109788
0.1196	0.100901
0.126967	0.101517
0.134334	0.0907505
0.141701	0.0917299
0.149068	0.0942873
0.156435	0.0960582
0.163802	0.089538
0.171169	0.089956
0.178535	0.0891932
0.185901	0.0855337
0.193267	0.0905063
0.200633	0.092162
0.207999	0.096073
0.215365	0.0992104
0.22273	0.0909485
0.230096	0.0973151
0.237461	0.0954692
0.244826	0.109062
0.25219	0.109578
0.259555	0.108426
0.266919	0.106848
0.274283	0.11761
0.281647	0.125761
0.289011	0.119869
0.296374	0.131391
0.303737	0.125684
0.3111	0.131831
0.318462	0.134554
0.325825	0.134027
0.333187	0.137864
0.340549	0.140445
0.34791	0.137232
0.355272	0.137097
0.362633	0.142877
0.369993	0.145389
0.377354	0.14579
0.384714	0.147126
0.392073	0.140779
0.399433	0.148789
0.406792	0.143224
0.414151	0.145842
0.421509	0.143933
0.428867	0.140243
0.436225	0.132335
0.443582	0.14035
0.450939	0.143277
0.458296	0.141606
0.465652	0.135306
0.473008	0.122394
0.480364	0.126566
0.487719	0.125999
0.495074	0.129391
0.502428	0.116077
0.509782	0.12177
0.517135	0.121301
0.524488	0.117506
0.531841	0.116874
0.539193	0.110281
0.546545	0.106505
0.553896	0.114755
0.561247	0.105097
0.568597	0.106726
0.575947	0.112556
0.583297	0.101402
0.590646	0.106535
0.597994	0.110136
0.605342	0.116183
0.61269	0.0993579
0.620037	0.106932
0.627383	0.096424
0.634729	0.102335
0.642075	0.105752
0.64942	0.103777
0.656764	0.101171
0.664108	0.0997366
0.671452	0.101621
0.678794	0.108829
0.686137	0.106083
0.693478	0.103842
0.700819	0.107714
0.70816	0.102453
0.7155	0.101359
0.722839	0.104005
0.730178	0.112507
0.737516	0.107146
0.744854	0.107086
0.752191	0.106339
0.759527	0.114557
0.766863	0.11075
0.774198	0.112824
0.781533	0.114376
0.788866	0.11384
0.7962	0.11277
0.803532	0.117249
0.810864	0.118336
0.818195	0.123846
0.825526	0.118338
0.832856	0.128218
0.840185	0.124038
0.847514	0.124199
0.854841	0.128198
0.862168	0.129193
0.869495	0.128678
0.876821	0.134163
0.884146	0.130219
0.89147	0.13639
0.898794	0.141884
0.906116	0.138928
0.913438	0.140564
0.92076	0.14382
0.92808	0.144911
0.9354	0.150277
0.942719	0.156794
0.950037	0.158042
0.957355	0.160964
0.964672	0.167937
0.971988	0.176845
0.979303	0.172017
0.986617	0.173559
0.993931	0.176322
1.00124	0.177618
1.00855	0.185061
1.01587	0.189173
1.02318	0.19526
1.03049	0.193115
1.0378	0.20466
1.0451	0.204269
1.05241	0.203427
1.05972	0.208514
1.06702	0.208993
1.07433	0.216946
1.08163	0.22364
1.08893	0.223541
1.09623	0.230729
1.10353	0.237092
1.11083	0.242088
1.11813	0.243368
1.12543	0.250423
1.13273	0.247598
1.14002	0.252658
1.14732	0.256482
1.15461	0.261755
1.16191	0.263898
1.1692	0.267879
1.17649	0.272393
1.18378	0.276126
1.19107	0.277255
1.19836	0.274221
1.20565	0.276406
1.21293	0.27906
1.22022	0.278572
1.2275	0.286041
1.23479	0.287902
1.24207	0.283833
1.24935	0.284896
1.25663	0.292123
1.26391	0.28659
1.27119	0.289694
1.27847	0.288749
1.28574	0.285889
1.29302	0.288272
1.30029	0.281315
1.30756	0.284792
1.31484	0.284621
1.32211	0.278516
1.32938	0.279324
1.33665	0.277513
1.34392	0.285545
1.35118	0.27247
1.35845	0.270398
1.36571	0.263315
1.37297	0.264257
1.38024	0.266203
1.3875	0.258268
1.39476	0.257891
1.40202	0.258524
1.40928	0.252802
1.41653	0.24695
1.42379	0.244609
1.43104	0.244758
1.43829	0.237764
1.44555	0.230008
1.4528	0.225973
1.46005	0.22381
1.4673	0.221157
1.47454	0.219563
1.48179	0.214483
1.48903	0.215239
1.49628	0.20945
1.50352	0.200579
1.51076	0.198147
1.518	0.199308
1.52524	0.193993
1.53248	0.190786
1.53971	0.186395
1.54695	0.180674
1.55418	0.180765
1.56141	0.172456
1.56864	0.170594
1.57587	0.166079
1.5831	0.162962
1.59033	0.16318
1.59755	0.161521
1.60478	0.155336
1.612	0.152219
1.61922	0.137531
1.62644	0.14703
1.63366	0.140778
1.64088	0.134079
1.6481	0.13792
1.65531	0.13688
1.66253	0.132894
1.66974	0.128498
1.67695	0.120768
1.68416	0.123619
1.69137	0.124107
1.69858	0.118434
1.70578	0.111407
1.71299	0.114449
1.72019	0.115433
1.72739	0.109599
1.73459	0.107261
1.74179	0.106725
1.74899	0.0994606
1.75618	0.103231
1.76338	0.0950514
1.77057	0.0913705
1.77776	0.0853377
1.78495	0.0863075
1.79214	0.0824106
1.79933	0.0784352
1.80651	0.0848168
1.8137	0.080552
1.82088	0.0829161
1.82806	0.0832636
1.83524	0.0756662
1.84242	0.0702699
1.8496	0.0782608
1.85677	0.0741927
1.86394	0.0682283
1.86514	0.0633008