File: data-parchment-25iod.txt
MATERIAL INFORMATION
	Material = 25% iodine on King Arthur parchment
	Thickness = 0.006 mm
SAXS INSTRUMENT
	Source = Cu K-alpha
	Wavelength = 1.5418 A
	Sample-to-detector distance = 106 mm
	Exposure time = 500 s

===============================================================
q (A^-1)	I(q)
===============================================================
0.00203935	12.5117
0.00947059	-5.95476
0.0169018	-0.0782892
0.0243331	-1.19181
0.0317643	-5.28706
0.0391954	0.199513
0.0466266	0.234977
0.0540577	0.701971
0.0614887	1.31709
0.0689197	1.51939
0.0763507	1.2417
0.0837816	1.30084
0.0912124	1.06826
0.0986431	0.784672
0.106074	0.956249
0.113504	0.289248
0.120935	0.40658
0.128365	0.401227
0.135796	0.801166
0.143226	0.513685
0.150656	0.732258
0.158086	0.57252
0.165515	0.34941
0.172945	0.502183
0.180374	0.378313
0.187804	0.222654
0.195233	0.266256
0.202662	0.295464
0.210091	0.244321
0.21752	-0.11162
0.224948	0.605225
0.232376	0.231649
0.239805	0.177679
0.247233	0.453954
0.25466	0.0420262
0.262088	0.0984878
0.269515	0.274785
0.276942	0.269959
0.284369	0.148695
0.291796	0.152256
0.299222	0.194955
0.306648	0.0804298
0.314074	0.0715793
0.321499	0.0880267
0.328925	0.00630353
0.33635	0.16267
0.343775	0.112693
0.351199	-0.0435663
0.358623	0.169595
0.366047	0.157457
0.373471	0.0223875
0.380894	0.11237
0.388317	0.222388
0.39574	0.186176
0.403162	-0.0468944
0.410584	-0.135369
0.418006	-0.0667633
0.425427	0.019818
0.432848	0.0818155
0.440269	-0.0425385
0.447689	0.117012
0.455108	-0.0794295
0.462528	0.0409893
0.469947	-0.116641
0.477366	0.119878
0.484784	0.0821173
0.492202	0.0491373
0.499619	-0.0613842
0.507037	0.0121503
0.514453	0.372207
0.521869	0.0357914
0.529285	0.139648
0.5367	-0.113579
0.544115	0.011389
0.55153	0.0901177
0.558944	0.0941255
0.566357	-0.152968
0.57377	-0.111607
0.581183	-0.112452
0.588595	-0.0756699
0.596007	-0.00729986
0.603418	0.102697
0.610828	0.0246651
0.618238	-0.0908548
0.625648	0.15477
0.633057	0.00749259
0.640466	-0.000682643
0.647873	-0.0526261
0.655281	0.156352
0.662688	-0.0143431
0.670094	-0.00290862
0.6775	-0.0177074
0.684905	-0.0923077
0.69231	0.0713228
0.699714	0.273373
0.707118	0.0918869
0.714521	-0.401093
0.721923	-0.00434336
0.729325	0.168151
0.736726	0.0540144
0.744126	0.0986219
0.751526	0.0726578
0.758925	0.0529675
0.766324	0.135921
0.773722	0.127325
0.781119	0.106688
0.788516	0.0518763
0.795912	0.135274
0.803308	0.02545
0.810702	0.0288805
0.818096	0.233039
0.82549	0.0123968
0.832882	0.149103
0.840274	0.00950378
0.847666	0.16495
0.855056	0.0866074
0.862446	0.163494
0.869835	0.15974
0.877224	0.00949471
0.884612	0.223711
0.891999	0.419596
0.899385	0.304085
0.90677	0.0942307
0.914155	0.131267
0.921539	0.106767
0.928922	0.238627
0.936305	0.113913
0.943686	0.192718
0.951067	0.12153
0.958447	0.234834
0.965827	0.0275228
0.973205	0.274606
0.980583	0.255914
0.98796	0.437573
0.995336	0.300211
1.00271	0.530071
1.01008	0.24821
1.01746	0.361855
1.02483	0.31816
1.0322	0.276829
1.03957	0.383697
1.04694	0.350122
1.05431	0.366987
1.06168	0.432487
1.06905	0.285368
1.07642	0.183822
1.08378	0.365993
1.09115	0.320227
1.09851	0.351147
1.10587	0.399664
1.11324	0.409097
1.1206	0.42167
1.12796	0.412456
1.13532	0.472185
1.14267	0.459785
1.15003	0.419076
1.15739	0.349937
1.16474	0.414625
1.1721	0.282503
1.17945	0.351229
1.1868	0.487455
1.19416	0.254373
1.20151	0.258363
1.20886	0.231867
1.2162	0.251411
1.22355	0.338624
1.2309	0.201153
1.23824	0.294073
1.24559	0.252226
1.25293	0.154673
1.26027	0.0911834
1.26762	0.137884
1.27496	0.153265
1.2823	0.320451
1.28963	0.185611
1.29697	0.161782
1.30431	0.350701
1.31164	0.196538
1.31898	0.20099
1.32631	0.0502937
1.33364	0.214801
1.34097	0.318899
1.3483	0.153018
1.35563	0.210645
1.36295	0.264781
1.37028	0.292832
1.37761	0.296526
1.38493	0.316534
1.39225	0.393859
1.39957	0.511231
1.40689	0.409105
1.41421	0.478175
1.42153	0.491276
1.42885	0.456841
1.43616	0.433583
1.44348	0.483702
1.45079	0.583774
1.4581	0.568342
1.46541	0.551413
1.47272	0.503094
1.48003	0.413659
1.48734	0.560576
1.49464	0.477931
1.50195	0.520378
1.50925	0.601983
1.51655	0.461543
1.52386	0.581557
1.53116	0.656958
1.53845	0.667046
1.54575	0.74912
1.55305	0.78918
1.56034	0.749015
1.56763	0.881708
1.57492	0.878199
1.58222	0.80152
1.5895	0.868219
1.59679	0.850467
1.60408	0.81884
1.61136	0.699236
1.61865	0.686129
1.62593	0.229566
1.63321	0.569587
1.64049	0.5613
1.64777	0.482882
1.65505	0.64133
1.66232	0.363169
1.6696	0.322373
1.67687	0.269663
1.68414	0.301111
1.69141	0.186349
1.69868	-0.0887068
1.70595	0.295403
1.71321	0.197073
1.72048	0.303324
1.72774	0.212838
1.735	0.155884
1.74226	0.238427
1.74952	0.180492
1.75678	0.136011
1.76404	0.103569
1.77129	0.0656935
1.77854	0.0620663
1.78579	0.102056
1.79305	0.0769585
1.80029	0.171465
1.80754	-0.0247234
1.81479	-0.12141
1.82203	0.0769132
1.82927	0.0461654
1.83651	0.102632
1.84375	-0.027689
1.85099	0.107897
1.85823	0.0987506
1.86546	0.185317
1.87269	-0.432199
1.87752	0.211482