File: data-flx9070.txt
MATERIAL INFORMATION
	Material = Flx9070
	Thickness = 1 mm
SAXS INSTRUMENT
	Source = Cu K-alpha
	Wavelength = 1.5418 A
	Sample-to-detector distance = 106 mm
	Exposure time = 60 s

===============================================================
q (A^-1)	I(q)
===============================================================
0.00171434	-0.000522614
0.00908246	0.094624
0.0164506	0.0229982
0.0238187	0.0144579
0.0311868	0.0100286
0.0385548	-0.0134073
0.0459228	-0.00702093
0.0532908	-0.00409391
0.0606587	0.00758263
0.0680266	0.041938
0.0753945	0.086508
0.0827623	0.108164
0.09013		0.115931
0.0974976	0.12469
0.104865	0.108601
0.112233	0.0950848
0.1196		0.115528
0.126967	0.0978583
0.134334	0.089998
0.141701	0.0886344
0.149068	0.0943482
0.156435	0.0903914
0.163802	0.0910111
0.171169	0.0898439
0.178535	0.101155
0.185901	0.099957
0.193267	0.0972991
0.200633	0.0899996
0.207999	0.103758
0.215365	0.110887
0.22273		0.105771
0.230096	0.119148
0.237461	0.106828
0.244826	0.1129
0.25219		0.109039
0.259555	0.110312
0.266919	0.115832
0.274283	0.131423
0.281647	0.132657
0.289011	0.140852
0.296374	0.145032
0.303737	0.131903
0.3111		0.139018
0.318462	0.148541
0.325825	0.150986
0.333187	0.139756
0.340549	0.155238
0.34791		0.159444
0.355272	0.151097
0.362633	0.154671
0.369993	0.150424
0.377354	0.157717
0.384714	0.14888
0.392073	0.154129
0.399433	0.158546
0.406792	0.149673
0.414151	0.14682
0.421509	0.15066
0.428867	0.148198
0.436225	0.145718
0.443582	0.149336
0.450939	0.13802
0.458296	0.141285
0.465652	0.138453
0.473008	0.133596
0.480364	0.129954
0.487719	0.130576
0.495074	0.1283
0.502428	0.130404
0.509782	0.126747
0.517135	0.124165
0.524488	0.119165
0.531841	0.120571
0.539193	0.115238
0.546545	0.11411
0.553896	0.116679
0.561247	0.10803
0.568597	0.116076
0.575947	0.111046
0.583297	0.112921
0.590646	0.105417
0.597994	0.103699
0.605342	0.103561
0.61269		0.102233
0.620037	0.107452
0.627383	0.0992329
0.634729	0.107776
0.642075	0.0998782
0.64942		0.10438
0.656764	0.105364
0.664108	0.100256
0.671452	0.10242
0.678794	0.106364
0.686137	0.107114
0.693478	0.110779
0.700819	0.105693
0.70816		0.103026
0.7155		0.105462
0.722839	0.0968307
0.730178	0.105522
0.737516	0.103552
0.744854	0.109338
0.752191	0.10955
0.759527	0.114905
0.766863	0.107604
0.774198	0.104048
0.781533	0.11853
0.788866	0.113358
0.7962	0.112816
0.803532	0.112454
0.810864	0.117135
0.818195	0.119397
0.825526	0.112711
0.832856	0.11638
0.840185	0.122984
0.847514	0.114859
0.854841	0.125618
0.862168	0.124253
0.869495	0.125841
0.876821	0.126914
0.884146	0.127045
0.89147	0.130429
0.898794	0.133322
0.906116	0.134038
0.913438	0.135851
0.92076	0.14137
0.92808	0.14918
0.9354	0.14581
0.942719	0.141687
0.950037	0.150719
0.957355	0.150038
0.964672	0.152761
0.971988	0.163153
0.979303	0.158822
0.986617	0.165573
0.993931	0.163542
1.00124	0.163359
1.00855	0.183151
1.01587	0.174324
1.02318	0.185713
1.03049	0.180765
1.0378	0.185767
1.0451	0.187844
1.05241	0.195138
1.05972	0.193938
1.06702	0.207151
1.07433	0.201063
1.08163	0.207841
1.08893	0.210416
1.09623	0.216159
1.10353	0.220743
1.11083	0.225839
1.11813	0.228559
1.12543	0.231739
1.13273	0.230871
1.14002	0.242243
1.14732	0.241969
1.15461	0.24277
1.16191	0.245839
1.1692	0.25209
1.17649	0.255851
1.18378	0.25556
1.19107	0.25498
1.19836	0.257215
1.20565	0.257416
1.21293	0.266377
1.22022	0.263073
1.2275	0.271425
1.23479	0.277951
1.24207	0.269522
1.24935	0.275791
1.25663	0.278443
1.26391	0.279777
1.27119	0.281127
1.27847	0.276664
1.28574	0.281379
1.29302	0.281718
1.30029	0.280378
1.30756	0.281812
1.31484	0.276793
1.32211	0.280681
1.32938	0.276686
1.33665	0.280096
1.34392	0.278908
1.35118	0.274887
1.35845	0.268582
1.36571	0.274962
1.37297	0.268608
1.38024	0.261945
1.3875	0.263349
1.39476	0.263423
1.40202	0.267298
1.40928	0.259216
1.41653	0.252962
1.42379	0.250133
1.43104	0.252184
1.43829	0.24371
1.44555	0.241626
1.4528	0.242253
1.46005	0.231653
1.4673	0.230505
1.47454	0.227465
1.48179	0.219156
1.48903	0.223661
1.49628	0.215877
1.50352	0.210086
1.51076	0.204475
1.518	0.202374
1.52524	0.194985
1.53248	0.197006
1.53971	0.190219
1.54695	0.184518
1.55418	0.187679
1.56141	0.178788
1.56864	0.177825
1.57587	0.17597
1.5831	0.166778
1.59033	0.165367
1.59755	0.169922
1.60478	0.163375
1.612	0.156831
1.61922	0.153837
1.62644	0.149538
1.63366	0.144424
1.64088	0.138444
1.6481	0.14345
1.65531	0.139513
1.66253	0.132551
1.66974	0.125679
1.67695	0.125523
1.68416	0.127058
1.69137	0.12154
1.69858	0.123142
1.70578	0.117714
1.71299	0.118308
1.72019	0.11552
1.72739	0.103822
1.73459	0.107775
1.74179	0.104617
1.74899	0.101136
1.75618	0.0982735
1.76338	0.09664
1.77057	0.0972556
1.77776	0.0883227
1.78495	0.0917014
1.79214	0.0969918
1.79933	0.0910751
1.80651	0.0909638
1.8137	0.0923425
1.82088	0.0796
1.82806	0.0839321
1.83524	0.0707073
1.84242	0.0748268
1.8496	0.084816
1.85677	0.0705844
1.86394	0.049868
1.86514	0.0536663