File: data-veroclear.txt
MATERIAL INFORMATION
	Material = VeroClear
	Thickness = 1 mm
SAXS INSTRUMENT
	Source = Cu K-alpha
	Wavelength = 1.5418 A
	Sample-to-detector distance = 106 mm
	Exposure time = 60 s

===============================================================
q (A^-1)	I(q)
===============================================================
-0.015857	0.153761
-0.0058281	0.0367362
0.00420075	-0.0200933
0.0142296	0.277447
0.0242583	-0.467105
0.034287	-0.499383
0.0443156	0.0266428
0.0543441	-0.0622308
0.0643725	0.0194665
0.0744007	0.00435895
0.0844288	0.0265258
0.0944567	0.0318523
0.104485	0.0345943
0.114512	0.0376819
0.124539	0.0402841
0.134566	0.0257435
0.144593	0.0376445
0.15462	0.0347064
0.164647	0.0406285
0.174673	0.038195
0.184698	0.0388464
0.194724	0.0402504
0.204749	0.045026
0.214774	0.0457015
0.224798	0.0503967
0.234822	0.0452519
0.244846	0.0572535
0.254869	0.0521396
0.264892	0.0486547
0.274914	0.0567622
0.284936	0.0552198
0.294958	0.0682597
0.304979	0.0639154
0.314999	0.0610766
0.325019	0.0694175
0.335039	0.0692897
0.345058	0.064363
0.355076	0.0793465
0.365094	0.0771735
0.375111	0.0793836
0.385128	0.0838904
0.395144	0.0680324
0.405159	0.0727785
0.415174	0.0785247
0.425188	0.0742025
0.435201	0.0714532
0.445214	0.0707778
0.455226	0.0736609
0.465237	0.0725917
0.475248	0.0764105
0.485258	0.0757659
0.495266	0.0729084
0.505275	0.0749229
0.515282	0.0633954
0.525289	0.0630644
0.535294	0.0672884
0.545299	0.0701485
0.555303	0.067545
0.565307	0.0638877
0.575309	0.0581692
0.58531	0.0591238
0.595311	0.0622972
0.60531	0.0594544
0.615309	0.059256
0.625306	0.0583383
0.635303	0.0633522
0.645299	0.0581787
0.655293	0.0536616
0.665287	0.0569815
0.675279	0.0596303
0.685271	0.066322
0.695261	0.0596512
0.705251	0.0632515
0.715239	0.0650071
0.725226	0.0609966
0.735212	0.0644959
0.745197	0.066377
0.75518	0.0678619
0.765163	0.071291
0.775144	0.0702802
0.785124	0.0718429
0.795103	0.0708522
0.805081	0.0802033
0.815057	0.0811314
0.825032	0.0852746
0.835006	0.0872521
0.844979	0.095233
0.85495	0.0989199
0.86492	0.0871323
0.874888	0.0981798
0.884855	0.108257
0.894821	0.121807
0.904785	0.124993
0.914748	0.119834
0.92471	0.132409
0.93467	0.136528
0.944629	0.140357
0.954586	0.144036
0.964542	0.149169
0.974496	0.161951
0.984449	0.173956
0.9944	0.183298
1.00435	0.199887
1.0143	0.192752
1.02424	0.203218
1.03419	0.20704
1.04413	0.225374
1.05407	0.227047
1.06401	0.234153
1.07395	0.246216
1.08389	0.255147
1.09383	0.274378
1.10376	0.28177
1.11369	0.290473
1.12362	0.297104
1.13355	0.308177
1.14348	0.318026
1.1534	0.317935
1.16332	0.326492
1.17324	0.331272
1.18316	0.333223
1.19308	0.340177
1.203	0.346236
1.21291	0.353782
1.22282	0.347912
1.23273	0.345806
1.24264	0.329181
1.25255	0.342867
1.26245	0.351236
1.27235	0.353416
1.28225	0.351837
1.29215	0.343634
1.30205	0.328906
1.31194	0.325896
1.32184	0.319553
1.33173	0.31516
1.34162	0.30806
1.3515	0.301592
1.36138	0.291422
1.37127	0.28525
1.38115	0.279507
1.39103	0.277946
1.4009	0.274951
1.41077	0.267921
1.42065	0.252139
1.43052	0.25098
1.44038	0.232246
1.45025	0.230598
1.46011	0.230199
1.46997	0.210789
1.47983	0.209322
1.48968	0.208772
1.49954	0.205828
1.50939	0.195992
1.51924	0.185873
1.52908	0.183234
1.53893	0.179183
1.54877	0.169395
1.55861	0.16905
1.56845	0.166477
1.57828	0.155889
1.58811	0.15099
1.59794	0.145616
1.60777	0.141653
1.6176	0.137356
1.62742	0.135092
1.63724	0.12833
1.64705	0.124906
1.65687	0.118895
1.66668	0.119631
1.67649	0.118767
1.6863	0.111206
1.6961	0.106024
1.70591	0.0983795
1.71571	0.0938265
1.7255	0.0901907
1.7353	0.0873818
1.74509	0.0849928
1.75488	0.0839181
1.76466	0.0833295
1.77445	0.0815514
1.78423	0.0807667
1.794	0.0737634
1.80378	0.0671226
1.81355	0.059339
1.82332	0.0517971
1.83309	0.0460053